Tm (°C),GC (%)
127.652,51.19
136.083,52.82
137.047,56.27
135.966,53.15
134.515,53.87
133.883,48.91
135.946,52.97
135.18,51.68
135.656,53.91
135.13,52.73
134.657,50.98
133.078,48.89
135.415,51.38
136.688,55.08
132.376,50.95
135.166,51.33
133.448,47.56
131.236,41.0
128.699,36.55
129.483,39.14
127.459,32.28
131.245,46.59
135.92,53.5
137.311,55.73
135.203,53.33
135.887,55.33
136.624,55.21
136.77,55.63
135.576,52.92
136.022,53.44
137.396,55.87
126.221,35.62
131.839,45.96
136.174,55.16
135.958,53.94
135.029,50.64
135.656,52.46
136.17,53.81
135.526,51.88
135.202,52.14
136.921,55.94
136.667,54.86
135.703,56.94
136.078,53.38
135.898,54.8
137.225,55.82
134.648,51.44
131.79,48.72
131.3,45.71
136.844,55.95
134.174,51.85
135.676,53.16
137.044,56.16
136.221,53.77
135.462,51.34
135.528,52.82
130.955,41.83
135.855,54.09
137.02,55.01
137.197,55.57
136.233,54.89
137.056,55.62
138.069,57.97
135.622,52.9
136.113,54.38
137.079,56.94
138.459,58.97
135.722,52.95
131.211,43.16
136.931,55.21
135.033,52.31
137.045,55.67
136.572,54.85
136.049,53.12
126.263,47.13
132.772,45.82
135.938,52.75
133.578,49.39
125.321,44.83
136.507,54.83
134.667,52.29
136.486,54.88
133.58,50.55
136.315,53.65
137.336,56.32
136.649,54.75
135.845,53.09
136.82,55.2
135.827,52.85
137.025,55.99
136.632,54.61
135.157,51.68
135.843,53.55
135.591,52.26
136.358,54.25
134.956,51.2
135.762,54.58
135.844,52.18
132.84,48.37
132.619,52.02
134.844,51.34
135.202,52.66
134.946,50.96
135.542,52.2
136.37,54.04
135.017,53.29
135.913,53.58
135.611,53.99
135.25,52.05
135.739,52.52
136.542,55.42
136.209,53.08
136.76,54.68
135.748,52.49
136.45,53.94
137.276,55.7
134.188,52.07
132.726,46.04
134.918,51.21
133.082,50.16
136.47,54.16
137.053,55.21
134.058,50.28
134.275,50.23
134.184,49.3
134.723,50.97
133.344,49.21
134.351,49.27
134.451,52.49
133.876,48.61
136.14,54.23
136.027,54.09
131.969,43.6
132.913,47.21
132.192,45.38
133.634,49.18
134.491,48.9
133.593,48.35
132.455,46.06
133.845,50.1
137.093,55.79
136.042,53.83
134.619,52.19
133.981,49.36
136.284,55.74
137.689,56.75
136.947,54.91
135.575,51.65
137.129,56.77
136.306,54.55
139.005,60.11
136.962,55.58
136.426,54.15
133.659,51.01
135.498,53.37
135.355,52.43
135.378,52.79
133.837,47.76
136.294,53.82
135.75,52.76
131.178,44.44
135.649,53.09
136.244,53.16
134.274,49.81
134.835,51.38
134.312,49.77
135.456,52.89
134.358,50.9
135.715,52.63
134.176,49.67
134.88,51.21
135.05,50.85
135.133,50.51
133.811,50.0
135.741,52.92
133.989,50.66
135.774,53.49
136.129,53.7
136.782,56.62
137.037,54.95
135.693,52.92
135.287,50.98
134.205,51.79
138.191,58.56
131.75,47.89
132.148,50.75
135.65,54.68
135.403,54.5
135.202,52.32
134.059,49.21
136.656,54.51
136.1,54.52
135.001,53.58
133.82,48.65
135.046,52.14
135.341,51.94
134.099,50.17
132.882,46.39
134.44,49.95
135.281,52.31
133.926,49.03
135.533,52.02
130.402,40.48
133.954,49.24
134.021,50.64
134.759,51.15
131.209,42.32
124.023,28.28
127.14,34.0
128.129,35.51
123.295,28.38
126.79,32.92
136.321,53.9
137.731,56.65
139.969,63.84
138.965,59.78
135.552,53.02
136.94,55.48
134.578,51.62
137.538,56.99
136.602,54.94
136.22,53.38
134.56,52.42
135.393,51.65
131.927,49.33
134.057,50.5
135.519,53.95
137.182,55.6
139.655,61.26
129.308,38.64
131.235,41.78
137.529,56.62
121.302,25.73
123.791,28.41
129.539,37.6
136.319,54.86
133.644,49.89
137.498,56.28
134.424,50.95
135.442,52.73
133.985,49.26
128.608,40.23
131.593,47.51
135.228,52.2
138.299,58.51
135.364,52.99
136.153,53.88
129.278,41.16
130.682,43.11
131.679,45.77
133.363,51.69
136.021,55.29
135.384,51.58
134.399,51.63
136.057,53.41
133.521,50.0
132.542,45.08
136.965,55.8
136.591,54.7
132.623,50.41
129.159,39.49
132.704,46.22
128.884,42.79
133.044,50.34
133.603,48.18
133.788,49.33
131.648,45.05
133.209,49.15
133.947,49.91
131.52,43.15
128.231,35.22
132.482,48.02
132.617,45.09
127.731,35.73
126.147,30.58
126.271,31.81
132.352,49.08
134.497,51.27
134.331,50.07
135.206,56.32
135.166,52.87
131.975,49.55
135.394,55.56
135.824,52.23
126.847,31.35
134.45,50.0
134.125,49.65
126.388,34.41
135.837,53.38
136.092,53.73
137.727,57.62
138.586,59.98
138.799,59.53
139.015,61.02
136.183,54.78
132.136,45.2
135.49,53.02
135.413,51.52
136.994,55.03
136.244,55.01
135.237,52.89
129.54,39.23
129.762,45.31
127.65,43.26
131.06,46.07
134.128,51.71
136.795,58.62
138.238,58.48
132.188,44.09
132.62,45.49
131.929,43.8
128.428,38.1
134.384,50.87
136.034,52.42
131.785,43.59
131.549,42.99
132.062,45.12
132.836,45.48
134.674,50.64
134.49,50.56
134.756,50.07
135.232,52.44
132.127,50.23
131.569,42.65
133.13,47.11
130.694,48.81
120.026,25.19
137.823,57.37
138.318,58.72
136.841,56.8
137.065,55.36
134.928,49.75
132.867,45.82
134.799,54.46
132.462,46.04
133.232,47.11
137.174,55.88
138.235,58.56
135.077,54.83
137.228,56.68
137.276,56.25
131.513,45.01
133.665,47.92
135.166,51.31
134.843,50.82
135.116,51.52
135.924,53.33
129.851,38.97
133.907,49.45
128.149,38.77
136.932,55.26
136.996,56.23
137.076,55.98
137.248,56.13
138.221,58.24
136.356,54.13
136.079,53.43
136.637,55.33
136.973,56.82
134.594,52.02
137.924,58.04
130.747,41.83
132.994,45.93
137.334,55.74
137.135,56.23
135.223,51.78
133.408,47.75
136.002,53.69
137.639,56.94
137.458,57.25
136.242,54.44
136.644,55.56
136.409,54.68
137.203,56.51
137.654,57.34
132.963,47.59
133.948,48.92
135.995,53.42
133.943,52.9
135.945,53.39
137.193,55.65
135.023,51.16
136.929,55.48
136.278,53.7
135.69,53.81
136.947,55.97
136.937,56.38
137.95,58.7
136.14,54.23
136.127,53.95
133.598,46.65
129.782,39.42
136.741,55.18
135.0,50.86
135.913,53.24
134.011,52.43
131.55,48.83
135.126,51.32
131.121,46.36
136.2,53.6
132.139,47.66
136.175,53.85
136.341,54.81
136.186,55.99
134.89,52.38
130.83,47.92
132.814,46.61
133.623,51.93
131.757,42.32
131.604,44.89
134.971,51.12
136.871,55.89
134.91,50.59
136.72,54.23
135.951,53.2
136.004,54.35
136.008,53.24
136.987,55.61
135.872,52.84
136.746,54.68
129.318,36.79
135.449,53.44
136.273,54.15
135.183,51.42
132.988,49.55
136.24,53.44
135.223,51.75
130.313,44.86
130.916,45.39
132.082,47.13
134.599,50.4
132.659,46.85
134.064,50.89
137.077,56.07
134.507,51.8
135.057,53.57
136.438,54.7
135.084,52.91
127.598,32.51
136.001,53.64
136.345,53.68
136.227,54.33
134.7,55.56
135.484,51.83
136.868,56.85
134.864,50.99
133.745,49.8
135.952,53.04
135.892,53.54
133.03,49.7
135.536,53.5
135.993,52.76
134.834,50.84
136.382,54.0
134.565,51.3
132.471,48.57
135.106,51.04
134.25,50.32
135.362,51.69
135.81,52.19
132.502,49.45
135.65,51.98
135.259,54.57
131.813,45.86
134.878,51.58
136.093,53.15
134.801,51.04
134.578,52.07
136.426,53.92
137.283,56.0
133.632,51.03
136.89,55.4
135.392,52.38
135.775,54.28
135.796,56.73
133.177,49.72
133.906,47.9
132.331,46.5
133.234,48.19
128.28,40.64
129.409,40.27
136.535,53.78
136.283,54.02
132.07,44.91
135.773,51.89
130.488,48.48
137.338,58.33
134.39,52.38
135.537,53.8
137.949,57.56
133.9,51.82
137.063,57.26
135.966,52.75
134.504,50.64
136.096,53.89
135.223,51.77
135.484,51.95
136.937,55.22
135.604,52.33
135.126,50.82
134.392,51.46
135.769,53.46
130.7,43.18
138.294,58.2
135.993,53.7
136.248,53.83
135.337,51.55
138.645,58.78
139.726,61.14
137.817,57.14
137.415,56.8
136.158,56.37
131.036,43.74
133.952,48.57
130.912,44.08
136.99,57.95
135.581,52.72
132.33,45.43
132.758,46.15
136.88,56.02
136.29,54.69
135.513,53.54
137.052,56.91
138.138,57.85
139.626,61.19
123.581,27.97
133.385,50.0
136.662,55.07
135.29,52.0
134.1,50.72
135.629,53.06
136.294,53.59
132.247,44.92
134.689,50.63
133.743,47.63
135.248,51.38
137.223,56.37
132.828,46.31
135.417,51.86
135.65,52.67
137.229,55.94
137.625,57.22
137.086,56.62
137.288,56.94
137.447,57.02
136.931,57.45
135.599,53.25
132.967,47.88
136.636,54.69
135.164,53.07
134.437,55.87
136.289,54.56
131.729,44.57
131.002,42.14
133.999,47.7
132.537,45.14
133.733,49.61
128.661,36.65
132.754,46.19
135.386,52.3
137.048,55.06
135.888,52.41
131.091,41.42
136.03,53.26
124.903,28.92
138.327,57.97
135.514,54.33
137.669,56.89
135.88,52.8
136.191,54.82
135.29,51.41
131.265,45.35
137.06,55.88
137.167,55.32
135.945,53.01
133.706,47.68
134.607,51.07
132.426,47.7
132.571,50.2
135.568,52.37
130.386,49.02
129.85,47.71
133.576,48.25
136.536,53.99
136.394,54.28
134.084,54.79
137.582,56.23
132.399,44.62
136.081,54.17
137.555,57.4
138.955,60.8
138.02,58.19
136.701,55.38
137.206,56.29
137.135,55.74
136.564,55.24
137.452,57.7
136.937,58.21
137.663,56.79
132.619,52.02
136.858,55.56
136.331,54.18
132.892,46.98
133.69,47.67
129.799,38.65
133.116,47.12
134.003,50.0
135.805,52.51
133.292,49.18
134.804,50.36
135.403,54.5
135.049,51.67
135.019,50.68
136.461,54.95
137.32,58.15
137.18,55.9
137.412,57.21
135.205,55.56
134.969,50.99
134.781,49.97
134.48,50.66
135.098,50.94
132.572,46.52
129.448,43.81
133.229,49.48
136.033,54.12
131.891,50.0
136.029,53.73
132.301,44.65
133.127,47.51
131.09,46.21
134.474,49.59
137.611,57.39
135.386,51.93
135.966,52.73
137.262,58.55
133.335,50.63
134.231,50.33
133.957,49.53
135.499,52.33
134.674,51.55
136.216,53.12
134.864,52.59
132.336,45.34
133.579,47.2
130.992,42.7
133.378,47.88
134.857,50.15
134.829,50.85
134.722,51.1
134.534,50.81
135.313,52.5
133.939,48.73
137.066,55.62
135.108,51.65
134.546,51.92
136.245,54.07
136.381,54.04
137.206,56.29
135.644,52.07
135.638,53.25
135.94,53.15
135.487,52.13
133.82,48.69
136.822,54.8
135.792,52.43
132.948,49.54
133.094,48.55
133.427,48.78
134.752,53.44
134.559,50.59
133.663,49.27
136.875,55.09
134.968,50.68
134.38,48.75
136.926,56.64
138.148,57.8
135.632,53.93
137.322,55.98
136.952,55.26
127.7,50.0
132.236,50.72
138.954,59.55
128.86,37.57
131.403,42.27
133.876,50.0
136.241,53.7
135.436,51.69
135.726,53.49
137.262,57.53
136.871,55.84
137.043,56.73
135.228,52.15
137.238,56.54
133.29,46.89
135.342,52.6
132.238,45.68
134.77,50.23
133.078,48.89
133.967,51.72
137.243,55.91
134.973,51.74
137.242,55.57
136.968,55.67
136.571,54.76
135.649,52.99
132.192,44.48
135.338,53.07
134.432,49.12
134.241,48.95
128.178,38.05
136.756,55.0
136.076,53.46
135.811,52.63
135.969,53.06
133.609,49.78
128.031,36.41
129.648,38.2
135.959,52.9
136.19,53.86
130.358,52.63
132.904,50.0
133.28,49.38
134.315,50.22
134.248,51.52
135.616,52.41
136.057,53.36
134.457,51.34
134.141,49.49
134.907,50.86
133.351,47.78
135.876,53.4
134.128,51.71
135.201,51.57
134.93,51.53
136.659,55.14
135.701,52.65
136.65,55.11
136.33,54.38
135.758,52.48
135.358,52.47
127.147,41.33
134.54,50.52
135.886,54.06
135.937,53.35
135.102,51.77
136.416,54.62
132.086,44.13
134.033,48.72
134.672,49.86
135.391,51.19
136.175,53.66
128.986,44.64
129.491,38.81
131.421,48.2
131.506,48.61
129.335,44.27
131.175,49.18
135.503,53.16
133.79,49.2
132.155,45.05
130.141,39.38
132.617,46.09
128.672,36.29
131.607,45.36
130.936,47.22
134.421,51.41
134.459,51.71
133.425,53.62
129.582,47.06
134.495,51.63
136.741,54.54
136.659,55.02
135.474,51.48
133.623,51.23
133.646,52.17
136.477,55.96
134.847,53.23
136.662,55.78
134.674,52.97
135.515,55.76
136.397,53.46
134.148,52.42
136.727,56.08
138.04,59.14
137.121,57.89
137.584,56.3
135.783,54.17
138.065,58.24
131.941,48.15
127.888,33.84
132.006,43.82
130.298,39.91
129.137,47.41
131.8,44.06
134.945,52.83
137.124,55.97
136.265,54.18
137.864,57.92
137.073,56.75
136.14,54.72
136.103,53.02
135.202,51.82
136.216,54.14
134.723,52.05
136.342,56.17
134.956,56.1
136.651,57.17
133.516,48.23
131.096,42.3
135.844,53.29
136.472,54.43
136.52,55.38
135.403,54.5
135.572,52.39
136.738,55.2
137.136,55.67
137.527,57.33
135.965,54.32
137.284,56.29
128.622,34.77
136.44,53.79
136.862,55.76
136.957,55.8
132.692,50.19
132.902,50.56
135.052,52.05
136.422,53.7
133.792,52.87
136.219,54.26
136.297,53.41
135.599,53.25
135.606,53.48
133.94,49.13
133.291,48.61
135.917,53.6
134.448,51.36
134.23,48.67
135.072,53.21
135.494,52.19
135.825,53.31
135.87,52.67
136.966,55.61
132.865,46.32
136.363,54.67
135.697,53.7
136.705,55.87
137.407,56.72
136.504,54.06
135.681,52.24
136.092,53.96
135.539,52.63
131.483,41.63
132.024,43.49
131.539,46.06
129.801,41.09
135.773,52.64
132.908,48.7
135.293,51.7
134.81,51.67
135.44,51.95
134.446,50.33
134.928,52.09
135.567,52.23
134.177,53.41
132.614,45.71
136.829,55.33
134.516,51.4
135.408,51.48
132.98,48.94
130.836,45.74
132.999,50.35
135.259,52.42
136.972,56.15
133.226,48.64
134.98,50.94
136.413,54.41
134.922,51.05
136.389,54.85
134.616,51.94
136.601,54.88
132.465,44.57
128.18,38.01
135.713,52.36
132.99,46.86
135.386,52.91
136.174,54.67
133.942,49.18
135.315,52.54
135.481,53.88
127.592,32.77
127.738,37.46
135.015,54.63
137.175,56.8
136.354,54.44
136.49,54.3
136.981,55.99
136.608,54.39
136.725,55.42
136.64,54.51
133.949,48.78
135.055,52.01
135.967,52.86
134.417,49.75
135.991,53.41
136.422,53.83
131.562,48.44
131.117,45.17
135.975,52.61
131.463,48.4
135.784,53.76
136.379,53.83
136.199,53.37
135.817,53.21
132.884,47.68
136.686,54.03
134.499,50.98
136.04,53.27
135.772,52.67
136.022,52.68
134.771,51.62
136.602,55.32
132.521,46.09
135.594,52.39
133.797,47.73
134.095,49.53
135.47,51.38
133.84,48.6
135.154,50.82
133.191,47.47
134.712,50.32
134.802,50.31
134.398,50.2
135.712,53.65
135.287,51.19
132.472,49.12
134.766,49.67
135.154,50.83
136.655,55.22
135.6,52.31
130.727,48.09
135.806,53.68
135.362,52.24
135.123,51.92
135.019,51.65
135.728,52.53
134.853,51.49
137.434,55.82
136.099,53.08
133.933,49.91
134.981,52.01
135.614,52.39
133.62,47.66
135.816,52.68
135.099,51.12
136.424,53.62
136.51,55.34
136.47,55.18
137.688,57.5
135.522,52.5
135.594,53.82
130.761,42.22
132.486,45.73
134.115,49.03
133.312,48.85
132.985,47.52
133.052,46.39
133.617,49.17
134.666,50.18
136.62,54.24
136.114,53.09
135.544,52.15
134.926,50.34
135.094,52.66
132.89,54.17
134.81,51.67
135.62,51.96
132.217,46.36
136.029,53.6
133.153,48.24
133.283,47.94
135.788,52.2
133.094,48.55
136.019,52.8
134.846,52.72
134.398,50.53
135.847,55.56
135.527,55.97
135.532,52.21
133.883,52.69
131.788,46.67
134.302,50.3
132.287,44.51
129.807,43.62
134.595,49.19
127.841,40.62
127.832,40.74
126.501,37.63
128.844,38.72
128.219,45.74
130.085,48.08
131.148,45.83
128.908,43.23
131.991,46.27
130.55,44.69
134.097,51.17
131.832,45.39
135.971,53.39
135.092,51.94
135.574,53.05
132.381,47.1
127.918,34.37
129.417,47.83
132.897,52.11
135.807,53.05
134.818,53.49
129.969,41.67
129.345,37.73
132.9,51.25
130.775,42.01
137.084,55.48
134.828,54.13
135.454,53.15
132.732,49.21
135.593,54.1
135.539,59.68
129.639,50.88
135.702,54.31
128.447,39.56
133.029,52.66
132.457,49.28
134.235,51.97
136.795,58.62
138.238,58.48
130.313,44.86
136.056,52.93
134.415,56.04
137.543,56.75
139.053,60.49
135.734,56.03
133.67,52.43
136.081,54.76
134.966,53.24
136.144,56.28
138.578,58.88
136.261,57.58
137.372,57.65
137.324,57.39
138.197,60.14
135.164,53.03
138.145,57.66
136.262,55.33
138.805,60.05
132.244,48.89
136.667,55.05
137.521,56.58
134.999,51.84
137.538,58.5
135.923,55.89
136.372,54.78
136.448,54.11
135.923,53.21
136.269,53.87
135.182,50.71
134.653,52.35
134.968,50.88
135.729,52.07
135.147,52.07
133.422,48.22
136.478,58.5
129.432,43.66
134.075,48.79
136.757,54.41
135.919,53.35
135.498,53.1
135.166,51.32
137.068,55.2
135.1,52.5
134.87,54.58
135.78,53.2
135.449,51.93
131.34,47.81
133.45,46.99
130.602,44.56
130.353,43.67
130.746,44.91
133.133,47.6
132.714,49.65
127.344,38.36
131.316,48.15
130.869,48.15
133.321,47.55
131.79,49.1
131.506,48.61
130.403,46.88
130.727,48.09
135.142,52.28
135.332,52.42
132.996,50.17
125.103,36.81
129.245,45.45
128.537,38.21
129.43,42.46
131.601,47.25
130.503,47.54
131.629,44.44
132.475,45.87
131.126,47.69
130.511,44.11
128.795,45.58
132.582,45.44
134.916,50.45
129.056,41.11
130.944,45.52
131.126,47.69
132.438,50.21
134.928,53.02
134.698,51.89
132.859,46.53
133.614,48.41
134.018,49.83
129.951,45.64
133.884,50.57
132.447,45.0
129.207,41.48
136.793,54.75
136.102,54.05
134.828,54.13
134.37,54.07
132.361,52.22
134.455,54.21
133.594,53.7
135.625,54.12
132.505,46.32
129.911,48.3
135.556,54.41
135.539,59.68
129.836,42.52
132.494,51.47
133.83,48.7
134.648,49.62
135.831,52.31
135.832,53.17
135.336,51.69
134.626,52.82
135.248,53.68
135.094,52.66
134.698,51.31
139.21,60.63
132.244,48.89
128.483,42.33
135.667,52.15
134.555,49.72
129.033,40.86
130.923,42.23
132.803,46.39
133.929,51.0
135.452,53.12
136.304,56.38
133.172,51.59
134.537,49.68
136.88,54.29
130.688,43.77
132.32,50.7
132.149,46.72
134.923,51.82
129.778,44.29
132.04,48.07
131.975,49.55
132.957,47.14
136.188,53.65
137.522,58.99
136.521,56.01
137.556,57.8
134.992,53.75
136.233,54.89
136.835,55.49
134.561,51.02
137.725,56.57
136.424,54.08
134.576,49.7
136.238,54.51
135.038,51.06
136.184,53.69
135.394,52.02
131.094,43.96
133.361,46.76
132.541,44.33
133.822,47.32
130.012,38.56
129.322,36.69
127.078,33.54
127.688,33.7
131.17,42.27
132.677,46.23
134.341,49.14
135.461,51.29
132.662,46.15
134.472,51.16
126.694,31.89
134.727,49.28
131.696,42.47
130.204,42.28
134.745,51.05
133.186,48.09
129.026,40.78
134.318,49.27
136.386,53.54
135.787,52.78
134.063,48.95
132.104,44.77
135.639,53.58
133.669,47.52
133.435,47.78
135.762,52.56
134.048,48.94
130.674,40.63
134.213,48.96
127.635,32.45
131.064,45.45
131.696,42.64
131.604,44.15
134.211,48.28
138.238,58.48
136.795,58.62
134.343,52.23
134.952,51.4
133.494,48.89
128.454,40.08
127.597,37.11
129.225,40.0
127.748,32.84
130.972,45.65
135.789,53.79
134.528,53.8
134.055,52.34
136.56,54.28
135.732,54.84
137.936,59.11
135.634,53.72
129.692,42.8
125.959,29.91
136.342,56.17
133.134,48.83
134.503,52.99
136.535,54.28
136.134,54.2
134.665,53.51
134.521,53.33
133.582,49.57
136.015,53.35
136.187,54.13
136.207,53.98
135.758,53.49
136.421,54.42
134.659,50.24
134.252,50.52
136.564,54.75
133.54,49.56
135.359,51.97
135.344,53.2
134.313,50.69
131.755,46.93
135.554,51.65
123.6,29.22
130.14,42.56
128.059,41.03
130.083,46.67
131.601,47.25
130.756,47.47
131.739,43.02
133.88,52.38
133.943,52.9
128.593,37.47
134.52,51.57
135.827,54.17
131.615,48.29
131.257,48.96
135.871,53.49
133.951,51.99
135.632,52.63
135.201,51.34
135.202,52.58
134.674,54.81
130.753,41.71
134.057,50.5
134.193,51.41
125.574,35.52
137.597,57.73
137.912,57.19
135.785,52.12
136.129,54.08
136.503,54.72
136.303,54.7
135.92,55.14
137.438,58.91
133.452,53.15
136.407,57.33
134.22,52.0
135.078,53.05
132.205,51.01
133.743,48.4
134.983,51.22
133.674,48.51
135.424,53.51
135.556,54.02
134.538,50.36
130.288,41.97
130.526,42.82
130.794,41.78
130.303,41.67
133.863,50.33
130.28,42.94
130.671,44.23
134.397,51.12
134.938,50.47
132.28,44.3
134.71,49.9
136.889,54.77
132.599,50.88
133.564,50.4
135.602,52.77
134.228,49.19
132.533,46.35
134.407,50.97
124.244,37.72
135.568,52.37
130.704,45.49
131.623,47.97
135.828,53.1
132.937,47.42
133.715,48.92
136.999,55.75
133.941,49.74
135.044,52.16
136.377,54.65
136.095,53.26
132.746,47.96
133.601,51.7
135.109,52.27
134.909,53.24
134.698,52.84
136.115,54.6
135.354,51.74
138.158,59.39
135.987,54.02
135.495,53.08
136.303,54.19
136.442,54.78
135.538,51.82
134.879,50.94
137.369,55.81
135.266,51.88
133.593,48.72
133.671,49.43
132.97,54.02
135.398,52.07
136.469,54.82
136.458,54.84
134.812,51.29
131.4,47.68
135.944,53.14
134.569,50.49
134.68,50.34
135.681,53.74
136.425,54.63
134.868,51.25
135.73,52.44
134.854,49.91
133.667,50.83
133.414,50.0
136.703,56.23
135.599,52.97
135.861,53.22
132.862,47.33
135.61,52.26
135.241,53.15
134.23,50.0
131.471,47.29
135.821,53.23
136.984,54.82
134.113,48.88
136.38,54.25
136.341,55.13
135.267,51.49
135.854,53.4
134.878,51.22
135.045,51.19
134.531,50.44
132.673,45.31
131.485,47.04
132.59,48.41
130.555,41.86
132.367,50.22
130.734,42.56
130.206,42.9
134.77,52.82
136.446,54.62
136.367,56.74
135.488,53.0
134.238,52.83
134.528,53.8
131.917,47.17
130.886,44.65
133.753,50.23
128.054,41.15
133.634,48.98
127.795,47.62
133.09,52.58
136.119,53.81
134.329,52.27
133.481,47.81
133.258,56.46
132.89,54.17
136.586,54.23
130.055,46.45
134.826,55.19
133.783,54.17
131.996,46.96
135.855,54.68
132.505,46.32
129.911,48.3
135.86,55.13
136.0,59.9
130.287,45.33
126.196,39.72
126.333,46.67
136.156,56.83
136.039,54.96
138.001,57.82
138.956,60.01
134.93,56.76
137.306,55.8
135.33,55.35
136.606,58.12
136.854,57.72
137.343,60.0
135.602,53.28
136.407,57.33
135.11,57.62
137.982,57.29
136.343,57.6
137.548,58.08
128.935,41.18
132.077,44.25
137.619,58.13
132.232,51.61
123.144,38.89
128.952,35.46
127.505,31.72
129.418,39.56
136.446,54.86
132.046,52.47
128.149,38.77
130.731,40.31
134.609,50.46
134.949,50.84
134.6,49.88
136.133,53.74
135.285,51.54
133.08,47.04
133.033,53.03
128.265,41.94
128.695,42.71
127.951,39.09
132.13,48.0
136.373,53.63
132.196,49.21
137.099,58.64
134.455,54.21
129.74,44.0
134.936,50.78
136.347,55.67
137.485,56.97
135.809,56.34
133.548,51.52
135.761,55.1
135.434,55.18
135.904,52.71
133.824,52.48
135.117,50.92
133.097,47.32
135.769,52.59
137.086,57.17
135.979,53.39
133.916,50.43
134.607,51.07
134.775,50.28
131.901,43.39
131.227,47.26
132.866,46.3
135.465,52.99
133.04,50.17
129.787,41.74
128.838,35.56
133.989,50.66
130.413,47.95
133.655,51.89
134.865,53.72
129.395,47.52
133.152,47.39
132.726,49.35
133.742,49.9
134.094,50.87
134.088,56.28
130.254,43.54
126.226,32.12
127.681,39.61
135.015,52.56
136.595,54.26
133.821,54.59
138.31,58.61
139.099,60.76
137.174,59.76
137.14,56.34
136.334,56.89
136.536,57.91
136.123,55.09
135.256,54.29
137.747,58.43
135.3,54.14
136.24,56.32
138.376,58.39
136.261,57.58
136.61,55.79
138.095,59.27
137.707,58.99
137.528,56.16
136.398,55.67
136.881,54.66
132.913,47.25
131.52,42.87
129.623,39.64
128.902,37.92
130.503,47.54
130.361,40.66
131.748,48.19
134.128,51.71
136.795,58.62
138.238,58.48
131.529,42.15
131.785,43.4
131.698,44.27
134.828,54.13
136.056,53.94
129.831,43.07
134.244,49.69
134.584,50.86
130.204,42.28
130.665,43.03
130.568,49.06
130.394,43.88
135.171,52.42
132.543,47.2
130.953,41.45
132.91,48.33
135.04,50.91
134.894,52.35
135.826,52.59
134.832,51.39
134.693,49.84
137.19,56.12
137.651,57.52
135.909,52.68
135.515,52.57
134.834,51.8
135.733,53.15
134.202,52.6
134.241,54.12
134.91,50.13
135.346,52.28
135.647,53.64
135.958,54.02
136.163,54.03
136.003,53.57
124.6,32.34
135.524,51.92
134.941,50.53
135.591,53.55
135.814,53.03
135.032,51.1
134.151,50.26
134.03,53.05
136.788,54.87
135.666,52.76
135.9,53.64
134.644,51.28
136.278,53.94
135.769,52.91
136.75,55.76
132.283,47.07
133.051,46.79
135.106,51.7
131.607,56.48
132.367,58.33
134.159,48.96
130.592,45.89
136.312,55.0
133.988,51.69
134.943,50.52
134.95,51.92
136.228,53.42
136.158,53.52
137.046,54.94
136.373,53.93
136.586,55.7
136.321,55.16
133.548,47.92
132.256,46.41
134.638,50.37
134.049,48.82
133.217,46.97
132.48,47.34
131.056,42.56
135.315,50.9
133.399,48.15
133.856,47.7
133.065,46.58
135.427,52.37
135.222,51.68
135.242,51.74
132.036,47.27
135.426,51.68
131.49,42.26
132.444,48.82
136.199,54.72
133.046,48.87
132.507,46.48
134.072,49.46
133.919,49.45
133.099,46.33
132.242,49.4
134.744,49.56
128.908,43.23
126.314,37.04
126.709,36.32
129.325,39.71
131.463,48.4
131.173,45.67
131.536,45.1
132.959,51.75
133.086,47.83
134.689,50.34
136.367,56.74
134.674,51.55
130.239,47.88
131.799,43.87
132.32,50.7
129.247,41.86
134.618,54.48
136.376,54.44
133.325,50.0
132.346,46.14
131.998,50.51
135.976,53.45
137.025,55.34
133.783,54.17
132.352,47.83
136.163,55.43
132.505,46.32
129.911,48.3
136.123,55.77
135.318,59.14
129.722,43.86
136.156,56.83
135.966,54.79
138.001,57.82
138.956,60.01
135.114,57.21
137.576,56.43
135.706,56.27
137.073,59.26
137.13,58.39
137.225,59.71
135.545,53.14
136.407,57.33
135.11,57.62
138.008,57.38
136.223,57.31
136.28,56.39
138.054,57.43
135.92,54.5
138.618,59.59
133.156,51.11
131.413,42.01
129.515,37.94
128.693,37.02
133.06,51.16
138.238,58.48
136.795,58.62
134.128,51.71
126.976,35.84
127.122,41.5
130.552,41.2
129.653,39.26
130.027,40.63
131.029,43.11
131.678,50.56
136.218,54.52
136.489,54.52
135.865,52.83
137.089,55.64
136.749,54.83
117.922,44.44
136.248,54.42
133.75,49.11
133.506,46.91
136.141,54.18
134.509,51.1
135.04,51.78
134.752,50.48
131.22,46.83
135.761,52.0
133.772,48.21
129.809,49.61
129.718,46.43
136.097,52.8
134.093,50.08
134.452,50.33
132.684,49.19
135.429,51.97
135.844,53.63
132.697,48.93
133.522,53.42
134.027,49.33
130.143,47.13
134.199,48.39
135.985,52.76
135.001,50.98
135.67,53.23
133.25,48.15
135.073,51.16
135.606,51.52
136.41,54.15
134.197,48.97
134.948,51.43
134.623,50.25
137.41,57.24
135.011,51.24
136.535,54.26
131.956,48.78
136.015,53.17
135.923,52.92
135.746,53.52
134.284,50.72
137.777,57.39
138.37,59.02
137.873,57.82
135.39,52.15
134.038,49.63
131.016,47.11
133.097,49.44
134.191,54.95
133.252,50.48
135.55,52.72
135.299,52.19
136.564,54.89
135.462,52.72
136.58,54.92
136.584,54.1
137.097,57.12
134.369,49.49
134.229,49.45
132.575,45.25
136.77,55.01
137.19,56.4
135.454,51.69
134.475,51.48
136.199,54.14
136.271,54.87
131.288,43.04
133.911,48.64
133.22,47.0
134.02,48.14
131.924,43.6
130.677,45.35
134.641,50.37
134.875,51.39
135.163,53.1
136.102,54.05
134.828,54.13
135.641,52.21
136.921,55.45
134.254,49.5
135.457,53.55
133.705,47.69
135.264,51.83
135.425,51.75
134.172,49.25
132.133,43.85
129.797,44.44
126.097,36.51
132.798,46.17
134.87,49.83
128.149,38.77
125.858,36.84
129.02,42.34
129.809,39.54
130.61,49.36
129.137,47.41
129.688,40.48
128.292,39.61
134.428,52.01
134.007,49.18
135.97,54.08
135.121,51.97
133.168,48.94
127.892,39.91
129.382,42.05
128.756,44.44
129.062,36.46
127.064,31.82
128.706,35.34
134.007,49.83
132.246,48.45
132.469,46.31
133.922,50.69
134.808,52.22
137.136,55.61
133.024,52.31
132.114,47.25
136.163,55.43
132.505,46.32
129.911,48.3
136.123,55.77
129.722,43.86
136.156,56.83
136.039,54.96
138.001,57.82
138.956,60.01
135.299,57.66
136.943,55.46
137.462,56.86
136.082,57.19
136.84,58.69
137.038,58.17
137.225,59.71
135.488,53.0
136.625,57.87
135.11,57.62
138.022,57.42
136.343,57.6
137.607,58.23
137.489,57.8
138.337,60.48
135.086,52.84
137.75,56.69
136.603,56.17
138.649,59.67
132.548,49.63
130.896,42.36
130.094,40.16
128.784,36.92
133.13,48.74
136.491,53.62
134.745,55.06
132.393,47.04
134.642,50.3
135.861,52.23
128.705,43.01
131.219,45.37
134.519,48.88
136.759,54.47
135.44,52.5
132.037,43.0
132.056,45.05
132.002,44.04
135.376,51.37
134.703,50.04
134.695,51.49
136.534,53.68
126.878,33.57
126.496,33.63
127.943,36.11
128.316,37.57
134.69,50.81
135.187,51.11
133.626,47.8
133.041,47.83
129.2,44.83
131.67,51.19
135.251,51.13
134.736,50.65
135.857,52.83
135.315,51.3
128.1,40.0
133.697,48.01
135.738,52.97
132.476,46.13
132.138,44.99
135.97,53.28
133.599,49.16
135.15,50.7
131.852,51.46
131.039,49.15
131.506,44.75
135.405,51.67
135.541,52.27
136.516,54.83
136.094,53.93
135.924,53.84
136.035,53.19
128.729,43.68
133.542,52.99
134.52,52.0
135.045,52.79
135.577,52.5
131.662,43.84
135.532,51.59
134.719,50.38
135.652,52.2
132.98,47.25
123.85,30.05
137.086,55.38
139.571,61.05
129.722,43.86
135.27,52.01
135.323,52.72
136.645,55.89
136.475,54.17
136.855,54.48
134.434,49.32
127.668,32.94
132.222,44.23
134.605,50.55
136.606,53.97
136.499,55.03
134.105,49.85
133.767,52.28
135.81,53.12
135.72,52.24
128.229,44.93
130.556,46.3
133.637,50.0
136.263,54.37
136.282,54.31
135.887,53.51
136.706,55.35
135.016,50.61
135.308,53.09
132.503,44.61
135.558,52.12
134.067,48.31
136.196,53.6
133.573,46.62
133.283,46.02
132.161,43.58
130.121,39.03
132.472,44.33
129.902,39.24
126.614,37.37
134.922,50.04
132.244,44.59
131.664,44.64
132.114,45.57
132.657,44.42
132.607,45.99
132.695,46.81
134.748,49.31
135.638,52.1
134.922,51.05
135.988,52.99
136.118,53.84
136.069,53.78
134.36,49.56
134.383,49.89
131.542,46.74
136.228,54.68
133.723,48.2
135.413,51.65
134.248,48.84
134.236,52.22
135.113,51.56
135.673,52.34
135.783,53.29
135.064,51.05
134.371,50.45
133.036,48.51
131.627,45.57
132.96,52.05
134.496,50.11
134.494,49.66
134.22,51.77
134.843,50.82
123.044,37.5
132.165,44.44
131.865,46.06
133.86,49.9
134.83,49.9
134.653,50.87
134.188,49.93
132.695,51.96
134.724,49.97
130.259,43.17
128.72,36.76
130.029,40.0
130.896,42.36
132.396,49.26
137.758,58.27
136.877,56.83
137.999,57.3
138.531,60.97
138.371,59.95
137.431,57.8
136.261,57.58
138.229,58.02
136.144,56.28
133.362,49.41
136.4,55.11
134.634,52.78
134.781,52.06
136.305,57.34
136.334,56.89
137.14,56.34
137.174,59.76
139.099,60.76
138.234,58.43
133.821,54.59
136.531,54.1
134.114,50.37
132.732,49.21
134.846,52.72
134.437,56.99
129.911,48.3
132.505,46.32
136.009,55.06
132.114,47.25
133.821,54.59
137.106,55.54
132.89,54.17
134.112,51.16
131.612,44.05
131.791,50.0
132.026,45.23
133.798,51.96
136.197,54.0
133.854,52.75
130.688,43.77
132.32,50.7
134.064,50.18
130.934,44.87
131.88,49.12
133.243,51.06
136.346,55.09
136.224,56.06
136.203,54.02
134.867,53.05
131.326,47.33
130.367,43.07
132.14,49.57
130.583,41.31
126.714,37.14
126.748,38.1
128.483,42.33
129.739,43.14
136.102,54.05
134.828,54.13
136.356,54.71
134.128,51.71
136.795,58.62
138.238,58.48
134.525,52.25
132.548,49.63
138.601,59.64
136.877,56.83
131.885,49.54
137.655,56.76
137.938,58.08
138.337,60.48
137.489,57.8
137.314,57.51
135.864,56.43
137.994,57.32
135.305,58.1
136.516,57.6
136.06,54.39
137.343,60.0
137.13,58.39
137.073,59.26
135.706,56.27
137.576,56.43
135.299,57.66
138.956,60.01
138.001,57.82
136.039,54.96
136.156,56.83
129.722,43.86
136.123,55.77
135.318,59.14
129.911,48.3
132.505,46.32
136.163,55.43
132.352,47.83
133.623,54.11
137.15,55.65
132.646,53.57
134.248,51.52
132.499,45.8
134.008,51.67
136.158,53.9
132.897,52.11
127.795,47.62
132.469,46.15
133.392,49.75
135.876,54.11
136.087,54.39
135.414,52.23
134.674,52.58
131.551,46.53
131.953,46.51
130.83,47.92
131.091,45.88
130.108,45.77
131.088,47.49
131.979,52.12
126.531,37.57
129.122,43.75
134.628,49.27
130.016,44.3
133.825,51.68
133.586,50.88
132.645,46.7
131.744,43.78
135.138,55.23
135.251,50.8
135.372,51.11
135.236,52.75
135.442,52.51
135.402,53.17
136.506,54.49
135.055,52.01
135.638,52.42
135.5,52.57
135.773,52.71
133.613,51.46
135.177,51.95
133.9,51.82
129.995,41.8
134.409,49.66
135.939,52.99
135.843,52.64
134.811,50.79
136.002,53.15
134.578,50.76
132.093,47.32
133.978,49.31
134.839,50.38
134.695,50.54
136.442,54.2
135.35,51.37
134.94,50.77
134.359,49.04
135.001,51.82
134.37,50.76
133.2,47.27
136.437,54.62
136.025,53.04
135.236,51.49
135.877,53.29
135.871,53.22
126.589,42.06
130.746,46.76
133.344,49.21
134.533,51.2
135.982,54.75
137.163,55.5
135.743,52.88
135.268,52.82
135.173,52.3
133.687,48.9
135.419,51.63
134.154,50.17
135.345,52.26
135.426,51.84
134.703,51.29
131.472,45.99
136.623,54.95
134.021,50.64
132.847,48.05
132.092,49.37
134.509,50.23
136.056,52.91
135.164,53.07
133.242,52.08
134.895,52.0
135.743,52.82
134.149,51.47
135.993,54.48
137.847,56.81
134.321,52.59
133.418,47.67
133.758,49.31
136.095,53.59
128.156,51.11
135.781,53.02
136.08,53.91
135.962,53.22
133.917,48.3
133.255,47.82
136.111,53.42
135.332,51.63
130.984,45.1
133.592,47.1
135.577,53.07
134.289,49.87
134.283,50.22
135.01,52.11
134.031,47.93
133.764,49.12
130.619,46.67
134.737,50.04
132.611,50.63
135.609,52.64
133.237,49.16
136.645,54.87
135.991,53.22
134.324,50.07
135.49,51.81
134.871,53.66
129.134,43.92
134.206,51.58
136.461,53.61
136.454,54.54
131.529,45.66
132.468,44.69
132.853,45.58
133.405,47.52
134.554,50.59
133.698,47.37
135.112,51.22
131.178,42.0
134.934,51.5
135.769,53.14
136.425,54.26
132.207,48.3
134.678,49.73
136.821,54.64
134.686,50.72
135.671,52.72
131.898,50.52
135.543,51.98
131.096,42.3
133.528,49.46
136.323,54.93
133.606,49.09
136.623,55.15
132.95,50.0
136.566,54.02
136.181,54.07
114.278,35.56
132.678,48.46
131.791,50.0
133.391,48.62
134.839,49.97
130.473,39.34
134.014,49.28
136.149,54.09
130.415,43.99
135.202,51.92
131.385,43.76
134.957,51.87
134.231,50.42
135.834,52.73
127.745,33.99
133.575,52.27
135.518,51.5
134.392,50.2
133.474,47.01
130.882,41.43
132.868,49.0
134.326,49.08
130.607,43.93
132.906,49.26
134.038,49.15
135.086,51.58
134.526,51.22
134.064,50.62
136.132,53.97
136.772,55.06
138.139,58.28
136.865,55.65
136.309,54.05
135.862,53.66
133.299,47.68
133.358,47.94
134.999,51.84
136.696,56.65
136.853,55.44
137.296,56.18
134.481,50.76
136.157,53.59
135.467,53.3
135.254,54.17
133.103,50.92
136.132,53.5
130.869,41.02
136.987,55.2
136.753,55.36
136.577,56.34
135.709,52.13
133.414,47.96
134.879,50.84
135.49,53.27
134.452,53.21
136.056,53.94
131.205,42.42
133.655,47.91
132.565,45.34
132.606,45.64
133.14,46.55
134.384,49.2
134.592,50.05
130.85,45.42
132.777,48.07
134.522,50.0
134.368,49.83
134.866,51.11
135.092,51.94
134.819,49.92
134.419,49.38
130.152,38.91
133.056,45.88
134.349,51.19
135.57,54.59
134.401,50.06
135.808,52.88
134.203,52.3
133.437,52.16
130.925,46.18
130.055,46.45
132.869,48.89
132.058,44.91
135.49,52.49
136.24,54.05
134.997,50.53
135.201,51.47
134.629,50.31
136.432,54.48
135.33,51.26
135.801,54.3
136.292,55.03
137.089,55.47
134.085,52.01
131.037,45.33
133.956,56.11
135.005,50.73
135.769,54.23
136.342,53.99
134.868,50.22
136.439,54.08
134.421,49.79
134.946,51.44
135.563,52.82
131.809,45.32
134.696,51.68
134.772,50.99
130.619,46.67
129.867,42.71
129.654,43.33
134.192,49.62
135.514,51.97
135.783,53.29
134.841,49.93
135.554,53.22
133.234,48.19
134.834,50.39
136.22,53.11
135.875,52.73
131.919,48.95
130.823,45.29
133.393,48.1
132.147,47.37
135.671,53.04
133.455,50.13
131.479,48.05
135.015,52.05
134.955,51.89
134.823,49.88
135.171,52.42
133.137,49.58
132.669,49.48
136.279,54.03
136.767,56.39
136.276,53.53
135.437,51.69
134.141,49.31
135.769,52.53
135.096,51.44
135.852,52.83
133.665,47.92
133.873,48.94
134.759,51.02
135.607,52.62
135.504,53.43
131.463,43.62
136.342,55.94
135.091,51.96
134.6,51.76
136.496,54.09
135.058,52.56
134.651,50.67
133.495,50.0
134.568,50.67
135.18,51.65
135.58,51.6
133.637,47.68
135.257,52.34
134.118,50.26
136.064,53.06
128.579,37.22
134.841,53.28
136.739,54.55
136.593,54.83
135.584,53.49
133.364,49.74
136.197,54.0
136.059,54.01
136.289,53.68
135.781,52.41
134.512,51.59
136.119,53.08
135.732,53.07
134.948,51.24
133.716,49.22
131.934,46.72
131.667,45.22
134.367,49.12
134.741,50.94
135.607,52.08
135.139,51.52
133.047,48.02
132.033,48.81
133.117,50.0
130.963,42.97
130.85,46.25
135.117,51.16
135.479,53.15
132.317,44.61
127.252,35.34
130.542,41.17
131.053,43.95
132.388,55.07
128.675,42.16
132.05,47.01
129.768,42.65
130.651,45.68
123.165,35.09
131.074,43.88
132.695,51.96
134.591,54.68
134.727,54.33
135.501,53.4
132.899,51.52
134.476,52.73
138.018,57.46
136.461,54.79
133.252,50.48
135.886,54.06
134.452,53.21
133.434,49.64
127.475,34.03
133.694,49.69
132.796,48.63
135.443,53.8
135.928,53.16
134.762,54.01
133.036,46.32
130.792,47.69
128.881,40.43
134.904,52.28
135.492,51.61
134.079,49.77
131.562,48.44
133.104,47.16
135.964,54.05
135.08,52.17
133.983,48.95
132.863,47.28
135.686,53.47
134.256,48.63
135.714,52.43
133.308,49.39
134.028,51.64
134.526,49.46
136.243,56.52
136.646,54.89
131.615,48.29
135.202,52.47
132.512,46.88
128.53,35.18
128.602,35.35
134.554,53.65
136.659,54.55
136.951,55.92
137.112,57.06
138.14,58.37
134.88,52.93
136.564,54.79
135.115,53.33
135.773,53.03
135.649,55.07
135.596,55.46
135.674,53.39
132.852,50.37
133.402,47.71
129.322,38.3
132.171,51.32
131.7,48.68
135.227,52.08
135.467,51.62
132.296,51.91
135.849,53.38
135.78,53.2
136.335,56.26
135.634,52.22
136.233,54.89
133.878,48.71
130.615,40.03
131.537,43.17
130.202,41.79
135.65,52.74
133.43,48.27
129.62,38.84
130.724,42.18
127.335,33.33
134.615,50.2
132.852,50.37
138.899,60.27
136.808,56.67
137.563,56.46
138.496,59.44
138.531,60.97
138.371,59.95
137.724,58.51
136.136,57.27
138.525,60.26
138.326,58.51
136.144,56.28
134.966,53.24
136.081,54.76
133.67,52.43
135.734,56.03
139.053,60.49
137.543,56.75
134.415,56.04
136.051,52.93
132.59,46.86
132.471,48.57
134.897,52.78
134.437,56.99
129.155,47.73
130.279,46.99
135.932,54.87
132.471,48.12
133.821,54.59
134.828,54.13
136.102,54.05
137.194,55.75
132.402,52.98
134.057,51.05
132.499,45.8
134.806,53.61
136.119,53.81
132.705,51.64
128.186,48.57
133.131,47.87
130.277,43.27
125.831,37.91
133.252,49.86
129.193,42.67
135.143,52.22
136.851,57.92
136.288,54.24
134.963,53.29
130.981,46.93
131.134,42.64
130.118,48.37
126.097,36.51
128.266,41.8
134.612,49.23
128.876,42.65
131.835,43.4
132.607,45.74
130.023,38.94
134.828,50.34
134.694,49.9
130.056,39.75
133.606,47.84
134.063,49.02
134.391,49.79
135.524,52.31
135.615,53.23
134.221,50.64
134.128,51.71
136.795,58.62
138.238,58.48
132.939,45.25
134.202,52.6
135.917,53.6
135.498,52.56
136.084,53.97
136.426,54.53
132.595,46.05
130.016,41.36
137.172,56.81
135.502,54.17
136.836,57.44
133.268,52.7
136.537,57.72
133.886,53.03
131.423,49.23
133.252,49.86
132.036,47.27
134.853,50.71
132.565,47.05
134.323,49.27
134.727,50.0
132.959,51.75
135.242,51.74
135.835,52.76
134.814,50.79
135.202,52.0
119.151,43.14
136.318,54.56
137.652,57.24
136.58,54.9
135.912,53.28
136.451,55.84
136.73,55.96
135.202,52.12
135.437,53.27
132.917,46.11
131.934,43.44
135.026,50.75
128.769,36.79
136.397,54.12
129.655,37.61
128.973,38.04
129.833,38.61
130.255,39.41
127.035,31.44
128.387,34.89
127.057,31.32
126.091,29.99
126.413,29.96
126.248,30.27
134.72,50.67
132.67,45.48
133.585,47.24
136.511,54.55
136.353,54.1
136.448,54.16
136.406,54.12
136.756,55.0
137.084,55.74
136.859,55.39
136.137,55.69
137.175,56.52
136.389,54.37
133.261,48.27
132.513,45.65
131.583,42.53
136.363,54.19
135.371,53.78
134.885,51.19
136.054,52.84
135.527,54.5
136.046,53.51
135.99,52.97
130.004,42.18
130.415,43.99
135.897,52.59
138.126,59.97
133.638,48.75
136.506,55.12
137.4,56.63
135.539,51.67
133.938,49.34
135.109,52.27
136.86,55.37
137.629,56.45
137.618,56.43
136.924,55.37
136.325,53.92
135.883,53.94
132.988,49.55
136.33,53.96
128.565,38.99
134.359,49.78
132.968,46.67
133.941,48.51
135.186,51.18
130.314,43.86
130.497,42.16
134.292,49.09
135.681,53.1
135.085,51.28
134.928,50.63
136.833,55.62
137.09,56.31
134.708,51.0
133.75,48.47
136.43,55.06
136.189,54.5
130.338,45.0
129.49,40.8
128.957,40.0
131.751,47.62
134.543,50.36
133.511,50.74
129.616,37.97
132.804,44.82
129.675,38.96
129.313,38.67
129.026,40.78
136.217,53.96
135.936,52.61
135.285,50.66
128.307,38.36
136.293,54.18
136.319,54.18
136.785,54.6
136.102,54.05
134.703,53.82
130.455,41.99
133.462,49.26
134.092,49.58
135.189,50.95
130.431,44.98
133.156,51.11
138.774,59.97
136.262,55.33
137.394,56.05
138.496,59.44
138.531,60.97
138.371,59.95
137.724,58.51
136.136,57.27
138.152,57.82
136.134,57.61
133.556,49.88
136.454,55.25
133.457,49.87
137.338,57.85
135.86,57.45
136.458,58.1
137.368,56.87
134.703,53.82
136.102,54.05
136.756,54.89
134.63,56.34
137.913,57.39
133.312,48.85
136.123,55.77
135.318,59.14
129.911,48.3
132.505,46.32
135.625,54.12
133.594,53.7
135.123,56.5
132.361,52.22
137.159,55.62
127.689,37.78
130.985,41.46
134.354,51.35
129.321,44.1
133.545,48.68
131.595,49.05
130.053,41.54
130.112,46.89
134.387,51.14
135.02,53.24
132.438,50.21
131.126,47.69
131.091,45.88
133.233,50.86
135.815,53.85
133.761,48.24
131.892,47.47
131.275,47.95
135.171,52.47
129.462,41.84
130.412,41.3
132.803,50.18
129.884,39.86
128.649,38.48
129.494,46.06
125.103,36.81
132.858,49.83
135.228,52.16
134.87,51.62
130.055,46.45
130.19,46.35
131.506,48.61
130.682,46.4
132.585,45.36
130.112,46.89
132.563,48.18
133.171,49.59
133.35,52.26
131.263,52.59
131.347,47.06
131.952,43.36
135.614,53.55
137.022,56.69
136.617,55.23
137.485,56.99
135.76,53.16
136.62,54.19
135.691,52.16
134.894,51.02
135.307,53.06
135.486,53.54
136.197,54.59
136.517,54.29
136.107,53.94
138.103,58.46
135.902,54.26
136.341,55.13
136.835,55.59
137.554,56.95
134.435,49.94
133.251,49.37
135.762,53.74
136.36,54.69
133.465,48.06
129.483,42.92
135.234,51.41
135.052,50.97
134.755,50.54
132.775,45.17
134.709,50.45
135.438,52.16
136.14,53.71
134.528,50.82
136.181,54.36
135.915,52.58
136.135,53.4
135.922,53.63
135.846,53.14
135.417,52.45
135.239,51.61
134.972,50.76
135.223,51.8
131.448,43.2
135.103,51.08
134.11,49.09
133.308,47.13
137.224,55.91
135.944,53.57
137.05,55.97
135.912,53.13
134.884,55.69
134.058,50.09
135.826,52.64
136.406,54.61
131.785,43.98
132.744,46.91
135.017,50.61
135.11,50.69
135.126,51.32
135.781,53.02
135.394,51.51
132.828,48.99
136.062,53.48
135.467,53.02
136.086,53.09
132.76,49.82
135.547,52.48
132.419,50.44
135.666,52.07
134.307,48.46
134.981,52.01
136.136,53.85
135.827,54.48
137.805,57.2
135.417,53.96
134.914,57.14
136.508,55.42
136.439,55.51
136.231,55.18
134.727,51.58
136.16,56.0
136.886,56.02
138.0,59.2
137.525,56.33
134.352,54.17
135.948,55.15
126.761,39.39
133.862,50.1
136.346,53.79
136.136,53.28
135.202,52.53
137.396,56.9
135.881,53.22
134.849,50.63
134.71,49.42
132.935,47.0
135.352,50.95
135.307,52.38
136.646,53.9
134.775,51.6
135.135,50.9
136.628,54.11
135.996,54.22
135.561,51.32
136.519,53.94
135.02,51.02
135.367,56.86
134.132,49.92
134.513,49.71
131.517,42.89
127.354,32.4
132.841,45.78
136.016,53.2
137.768,57.27
137.105,55.95
136.268,53.99
133.875,48.54
136.128,54.45
134.828,54.13
136.102,54.05
135.524,52.16
134.521,50.45
136.258,53.95
135.429,53.59
132.846,48.12
131.327,43.28
135.148,51.3
134.482,49.95
135.49,51.54
135.708,53.09
135.151,50.88
134.655,53.57
132.767,48.32
131.213,46.44
137.212,56.12
138.097,58.77
136.372,54.78
137.147,56.92
138.268,58.47
136.166,53.63
133.798,51.96
132.852,47.84
134.643,50.44
128.485,34.97
131.908,45.24
137.774,57.41
136.822,55.03
137.838,57.33
134.664,54.13
135.203,52.97
135.656,54.14
136.396,54.6
137.546,56.33
137.392,56.58
136.267,55.89
137.316,56.07
134.955,51.89
134.973,53.15
134.372,49.73
134.814,50.41
134.007,49.83
135.738,52.21
136.777,56.37
133.215,48.48
134.079,50.88
135.644,52.45
137.093,55.38
135.783,52.54
135.429,53.59
134.571,51.45
134.312,50.39
134.918,51.85
131.025,44.35
136.417,54.81
132.487,45.23
135.546,52.97
134.23,49.93
135.322,52.69
133.788,48.66
134.783,51.09
135.167,52.81
135.917,52.83
133.526,49.28
137.119,57.16
137.107,55.95
136.68,55.41
133.556,48.48
136.715,55.72
136.475,54.73
135.814,52.95
135.634,52.71
137.357,56.66
137.216,56.27
135.466,51.47
133.736,52.33
134.605,51.55
135.177,51.98
136.593,55.39
136.768,55.34
135.685,52.95
134.943,52.36
131.457,42.82
131.708,44.64
132.528,47.32
134.221,50.9
135.472,52.83
136.808,54.55
132.913,47.34
135.245,53.5
135.583,51.7
137.078,55.84
133.623,51.93
134.865,50.41
128.269,34.69
135.229,52.25
133.883,48.55
133.732,47.84
131.487,42.39
134.359,50.37
132.006,45.73
131.311,43.06
129.079,36.23
128.491,42.94
133.11,47.53
132.162,43.91
135.381,52.24
135.244,51.26
135.094,51.47
135.17,51.17
131.391,41.78
131.239,41.75
130.002,40.0
131.305,40.96
132.468,45.08
133.532,46.9
133.53,47.24
132.463,45.91
128.149,38.77
131.326,47.33
135.157,51.68
136.823,55.29
135.141,50.82
133.138,47.21
135.751,53.26
137.196,55.53
137.868,58.09
137.485,57.09
136.203,53.77
133.449,50.76
134.968,51.14
136.31,54.02
134.452,53.21
135.962,53.19
134.383,49.38
134.461,48.95
133.211,49.72
132.614,48.12
135.344,51.78
132.409,46.22
135.968,53.04
130.709,43.86
135.202,51.65
132.773,51.6
136.635,54.32
136.72,55.36
134.207,49.74
134.59,50.21
132.743,50.39
134.62,49.54
132.751,47.25
135.226,52.0
132.003,47.15
136.843,55.81
137.871,58.01
136.91,56.05
136.505,55.16
135.967,53.49
136.367,54.92
135.034,51.52
136.07,53.96
137.301,56.28
135.484,51.95
136.91,56.0
134.242,50.52
134.884,52.89
134.674,52.58
134.613,50.46
136.318,54.56
135.863,53.18
136.922,57.49
136.538,55.76
137.118,56.53
137.052,55.73
138.428,59.05
136.805,55.26
138.256,58.84
137.896,58.54
137.669,57.19
134.28,53.47
136.242,57.44
137.862,58.11
137.414,57.65
136.341,55.13
134.306,51.25
133.557,50.89
136.666,54.3
134.641,50.37
136.704,54.49
136.635,55.08
133.316,48.26
137.178,55.66
135.49,51.68
136.695,54.17
132.103,47.06
135.91,53.19
131.128,48.26
135.906,54.08
136.899,54.96
136.08,54.05
135.231,52.38
136.746,55.36
135.202,51.88
133.986,49.91
133.636,49.68
136.828,56.63
136.988,55.18
136.045,53.8
137.123,55.83
135.58,53.46
136.523,54.28
136.694,54.6
136.292,55.68
136.877,56.26
134.362,51.93
135.995,52.76
134.574,50.41
135.993,53.48
136.363,53.96
134.464,52.78
135.586,53.15
135.694,52.48
135.399,53.11
135.853,53.18
135.78,53.99
134.407,48.86
135.214,51.1
133.456,46.48
130.849,48.85
132.7,47.09
133.494,48.89
136.487,54.18
136.57,54.46
136.158,53.54
131.506,48.61
135.452,51.73
135.932,53.18
133.948,49.6
136.584,54.67
135.897,53.17
136.394,54.54
135.698,52.64
134.776,52.78
133.284,47.25
133.78,48.54
134.063,49.84
134.917,50.0
137.523,56.38
136.345,53.12
135.517,52.72
133.038,46.85
137.165,56.07
131.944,50.25
134.167,52.38
137.992,57.7
134.686,51.94
133.117,50.0
133.085,49.1
135.977,53.25
135.203,53.37
136.285,54.88
136.145,54.35
134.626,50.53
135.169,51.21
137.233,56.4
134.465,50.06
136.119,53.45
134.966,52.6
135.332,55.45
136.765,55.84
136.326,54.11
133.653,50.12
136.845,55.9
137.048,56.16
137.113,55.75
132.764,45.73
136.993,54.88
134.909,50.67
135.871,52.95
135.718,52.64
133.632,51.03
136.43,54.23
135.862,53.92
135.794,52.64
137.853,56.89
135.043,50.67
135.244,53.37
135.492,53.3
135.153,51.83
130.179,44.06
134.02,51.44
137.022,56.69
135.821,53.77
135.405,52.32
134.48,50.66
135.202,51.69
136.374,53.78
136.1,55.62
134.816,50.78
134.946,51.96
133.53,48.78
136.009,52.99
135.619,53.25
136.645,54.76
134.295,49.66
134.401,50.85
132.908,48.7
135.351,52.75
137.117,56.26
133.398,49.52
135.261,52.5
136.849,54.64
134.218,48.82
135.205,56.04
134.191,48.81
135.527,51.44
136.07,54.37
135.494,52.4
134.785,51.22
131.668,46.2
116.867,39.58
134.212,49.01
135.329,51.78
135.393,52.01
131.703,46.01
132.122,45.66
134.065,48.57
134.354,51.35
132.553,48.28
135.602,53.12
133.56,49.0
133.065,51.41
136.42,54.19
135.107,51.67
135.251,51.45
134.133,50.17
134.362,49.83
135.608,51.99
132.987,49.42
133.233,50.86
132.971,48.22
134.1,50.72
129.937,43.78
129.306,38.41
130.479,41.01
128.697,35.69
133.307,51.48
134.828,54.13
136.102,54.05
136.795,58.62
134.235,51.97
134.852,56.28
131.996,46.96
133.783,54.17
137.003,55.29
131.042,44.85
128.782,36.56
134.447,50.8
132.155,45.05
132.556,46.24
129.707,39.51
132.951,46.69
129.928,42.57
128.936,36.03
126.538,32.85
126.983,34.09
127.199,31.5
127.011,31.28
128.079,34.0
128.869,42.51
131.52,42.96
134.816,49.42
128.383,34.59
129.807,38.18
129.649,38.1
135.809,53.17
137.786,57.6
137.748,57.35
138.146,58.47
135.26,51.32
135.573,53.39
132.88,48.0
131.342,50.94
134.18,53.0
132.28,46.05
132.774,48.15
133.427,49.33
131.996,46.96
134.521,53.33
136.245,53.78
134.302,51.62
133.789,53.25
136.101,56.2
135.717,52.03
133.899,48.54
134.042,48.55
137.973,58.31
135.656,52.77
136.689,55.02
135.396,52.71
135.265,55.06
133.581,49.15
136.005,53.37
137.306,56.21
134.528,51.55
135.464,51.7
133.483,49.65
135.42,53.44
131.351,49.46
136.416,53.59
134.548,51.7
136.147,53.86
136.397,56.22
136.475,54.49
135.7,55.65
135.281,52.31
135.375,55.0
133.586,48.19
137.43,57.14
137.799,57.43
136.047,53.4
136.376,54.32
138.021,57.61
135.009,52.65
135.586,52.56
137.38,56.45
135.661,52.28
135.551,54.35
134.705,52.8
137.204,57.03
136.486,56.17
137.443,56.43
137.753,58.01
138.073,57.91
136.844,56.7
133.739,50.0
134.387,52.71
136.564,55.21
134.905,55.31
137.083,56.06
137.675,57.67
135.773,52.19
133.525,50.56
137.593,56.48
131.021,42.31
134.341,54.85
137.857,57.63
136.963,57.07
134.249,51.72
135.243,51.76
135.723,52.72
135.791,54.07
136.251,54.72
135.299,51.81
135.246,53.54
136.413,55.27
133.825,51.92
132.104,47.53
135.033,52.31
136.421,54.13
135.968,53.69
134.115,48.94
132.486,48.98
135.313,52.06
136.462,55.61
136.41,55.15
135.027,51.14
134.439,51.21
134.965,50.48
135.087,50.33
128.51,44.44
134.7,51.02
137.307,56.1
137.536,56.61
132.796,48.63
136.603,54.72
134.734,55.17
132.747,46.88
136.753,55.9
135.116,50.93
132.724,46.06
134.544,49.69
134.508,49.43
134.806,51.49
132.53,45.93
133.096,46.3
133.678,48.09
134.98,50.73
135.589,51.95
134.917,51.39
132.093,47.32
131.913,48.59
136.411,53.69
135.248,51.38
134.859,49.76
136.118,53.47
135.534,52.03
134.702,52.44
135.883,53.77
134.024,52.12
133.063,47.8
134.091,49.23
135.171,51.14
135.567,52.17
136.475,54.31
135.42,52.48
136.093,53.61
133.969,49.54
133.613,47.38
136.736,54.67
135.172,51.09
133.168,48.94
133.438,47.95
135.611,52.5
135.256,54.29
134.063,49.02
130.981,46.93
137.122,56.05
135.711,54.95
136.167,54.4
135.705,52.73
136.133,53.59
135.894,52.93
136.929,55.12
136.855,54.5
135.286,50.78
136.588,53.87
134.762,54.01
134.952,53.43
134.657,51.6
135.203,53.5
134.635,50.69
135.693,53.08
136.478,53.85
133.659,49.34
127.401,42.18
135.707,53.62
134.657,50.98
129.403,43.38
136.265,54.18
136.935,55.61
135.78,52.18
135.698,52.81
135.818,52.81
135.837,53.31
134.492,50.65
135.23,51.23
135.229,52.23
134.32,49.82
136.016,53.38
132.351,44.39
128.92,37.28
130.165,39.75
126.277,31.67
126.878,33.57
126.411,31.91
126.828,32.93
128.383,34.57
125.097,32.88
128.596,36.49
126.425,32.41
124.681,30.65
127.63,34.36
128.731,36.46
128.556,38.74
127.946,39.17
127.281,32.93
127.101,33.53
127.655,33.07
129.151,42.19
129.773,40.4
127.823,38.31
127.846,34.53
128.638,35.66
129.125,38.07
126.358,35.47
128.504,37.25
132.442,44.55
129.69,37.36
129.03,36.39
130.208,38.79
129.599,38.53
125.756,36.11
130.246,39.47
130.95,42.55
134.849,51.32
136.119,52.96
135.808,53.36
134.648,52.08
133.104,45.81
134.494,49.66
136.092,53.55
135.353,51.73
136.015,53.17
134.191,49.3
135.793,52.46
134.404,50.19
131.237,43.18
135.836,52.08
135.756,52.6
136.122,54.36
136.172,52.94
134.265,48.89
134.236,48.9
135.875,52.85
136.002,52.81
134.352,49.07
123.66,34.92
134.157,50.46
135.728,52.37
136.042,53.55
137.672,56.98
133.53,48.24
135.659,52.95
134.849,52.3
135.153,53.92
132.134,48.69
136.246,54.23
135.171,52.42
131.197,45.51
135.015,50.7
137.319,55.74
134.415,52.31
136.437,54.52
136.701,55.03
138.54,59.54
136.021,53.24
134.353,50.78
131.912,46.97
134.727,51.58
135.8,52.8
134.985,51.97
136.188,54.25
136.825,54.73
136.045,53.71
134.028,49.24
136.033,53.14
135.257,52.36
134.397,50.63
134.345,49.83
134.993,51.02
135.642,52.49
135.222,51.67
135.725,55.09
136.973,57.17
136.737,56.07
136.079,54.57
135.535,53.24
135.575,53.22
133.233,48.43
137.005,56.11
135.089,51.02
134.699,49.96
130.632,42.57
137.31,55.97
134.986,51.65
136.582,55.16
133.774,48.77
136.59,54.22
126.359,40.91
131.316,48.15
129.756,43.25
135.947,53.25
135.965,53.05
135.158,53.51
136.216,54.8
135.51,53.01
135.785,53.16
134.525,50.94
134.712,52.76
136.623,55.15
134.737,51.21
134.624,51.5
132.528,49.14
136.479,55.89
135.923,53.21
132.171,44.25
135.711,52.82
135.344,52.64
132.697,48.93
135.458,52.92
136.798,55.46
131.566,47.1
135.106,51.3
134.614,49.88
135.69,51.97
134.884,51.55
133.663,47.55
133.623,48.59
136.088,56.9
129.79,39.89
127.162,31.39
128.347,34.95
127.67,34.07
136.102,54.05
134.828,54.13
136.795,58.62
138.238,58.48
134.27,52.42
136.851,55.2
135.851,52.47
136.148,54.21
133.724,53.01
135.744,56.14
135.706,54.6
135.866,54.95
136.223,53.46
136.418,54.37
136.365,54.51
136.447,54.51
131.006,45.49
135.132,51.69
135.398,52.07
132.553,46.87
136.175,54.24
133.615,50.0
135.648,53.33
135.322,51.68
134.612,51.06
134.559,50.16
136.557,54.73
134.731,50.85
131.948,48.45
136.743,54.5
137.348,56.4
134.119,49.59
136.816,54.67
135.749,52.36
134.948,52.8
134.265,51.91
134.923,51.82
135.793,52.67
134.252,50.52
133.122,50.16
135.271,52.03
134.531,50.11
134.708,50.39
136.097,53.86
133.962,49.01
134.119,48.13
136.457,53.94
135.66,53.95
136.861,56.04
132.974,48.46
134.194,50.16
135.436,51.69
136.697,56.1
134.813,50.47
135.78,53.43
135.599,53.1
128.735,43.86
135.234,52.6
132.813,49.67
128.884,42.79
130.936,42.28
135.09,50.72
137.074,55.72
137.437,56.04
136.791,55.15
135.202,52.66
137.253,56.34
135.426,52.55
133.649,50.68
135.634,53.72
134.323,49.62
136.168,54.17
135.575,53.63
136.951,55.4
137.526,57.3
132.834,51.85
135.729,52.23
136.036,52.93
134.96,52.66
137.024,56.6
135.367,53.04
136.98,55.42
136.686,54.73
133.604,51.05
135.097,51.42
136.725,54.25
131.696,45.11
134.443,49.3
135.355,51.91
136.778,54.55
137.861,57.31
132.746,47.96
128.046,37.78
136.355,54.27
134.267,50.99
134.906,51.66
135.409,52.18
136.284,54.35
136.683,54.94
133.977,50.0
136.4,54.03
136.362,54.0
136.495,54.43
134.727,50.97
134.398,50.53
135.151,54.17
132.76,48.51
134.87,54.58
134.698,52.84
135.683,56.67
133.59,49.48
134.745,50.56
134.028,51.64
131.07,44.54
136.619,55.3
135.582,53.28
132.227,52.73
137.484,56.83
134.786,50.23
136.162,53.55
134.205,51.79
136.201,53.16
133.879,48.14
134.57,49.7
133.069,46.46
131.228,42.07
125.697,31.59
127.952,35.37
126.798,30.89
136.149,53.75
135.524,52.64
135.415,52.66
134.955,50.64
136.075,53.18
132.215,47.62
131.588,44.73
135.48,52.72
136.801,55.19
134.295,51.27
136.7,55.77
135.108,51.65
135.015,53.33
137.786,57.76
137.225,56.36
135.392,52.38
131.507,44.44
132.399,45.98
131.801,44.15
133.881,47.44
134.828,54.13
136.102,54.05
136.249,54.47
136.529,54.05
135.359,54.55
134.37,50.76
135.879,54.51
137.643,57.54
136.395,55.5
134.097,50.48
135.804,55.18
134.799,54.46
135.894,54.96
134.656,51.81
137.527,57.33
136.834,55.86
137.052,56.15
135.761,52.69
136.969,55.19
133.719,48.25
136.477,53.89
133.611,52.22
135.679,52.91
134.541,52.49
136.382,53.5
135.959,52.96
133.031,48.34
135.796,52.68
132.027,43.35
133.358,50.45
136.35,54.04
135.057,51.59
136.35,53.65
134.324,50.48
132.346,48.64
133.226,48.64
135.93,52.93
135.795,52.86
135.647,52.8
132.584,50.0
132.379,48.4
135.644,52.78
133.001,50.54
135.998,53.25
132.7,50.0
134.299,53.4
135.106,52.36
133.903,49.82
136.459,55.17
136.29,54.69
135.348,52.04
135.409,52.18
134.841,52.03
132.605,46.53
133.623,49.1
135.964,54.13
135.902,52.86
130.721,44.79
134.495,51.63
135.298,52.16
132.202,48.72
134.49,50.87
135.09,51.99
135.296,52.75
135.113,50.49
136.723,55.48
137.987,57.16
136.906,55.32
134.089,48.86
132.734,47.53
137.987,58.68
137.49,57.97
136.603,54.53
135.179,51.79
135.849,53.66
134.901,50.48
135.985,55.22
135.587,53.52
134.265,51.91
133.866,50.58
135.329,51.77
135.409,54.64
135.606,52.19
135.681,52.72
135.464,52.4
133.114,48.41
132.022,48.48
129.799,42.86
135.92,52.59
136.061,53.87
130.685,47.06
135.62,52.8
136.661,54.7
136.527,53.67
135.689,52.31
135.72,54.04
134.281,51.12
137.003,55.89
136.321,54.31
135.095,50.59
136.673,55.28
134.42,51.59
136.036,53.26
134.531,55.14
136.373,53.99
136.341,54.65
135.435,52.28
131.754,47.14
133.395,47.46
127.578,40.56
131.801,44.19
135.538,52.25
134.006,54.5
134.342,49.51
134.906,50.68
135.368,51.9
133.527,48.09
133.43,48.65
132.107,48.84
134.0,49.08
134.988,52.36
133.919,49.91
132.046,45.78
134.983,50.93
132.51,46.67
135.526,52.53
134.613,49.84
134.784,50.18
131.513,45.01
129.59,43.84
133.712,50.23
132.537,47.97
134.937,53.65
135.429,52.22
134.41,50.72
134.205,51.79
134.056,51.82
128.555,47.86
134.57,49.7
135.203,53.79
131.45,50.0
133.779,49.8
134.799,53.67
134.781,52.06
133.535,50.13
134.066,52.61
133.874,49.81
131.56,46.35
133.826,51.08
131.508,47.45
133.393,54.17
134.206,51.58
134.647,51.0
133.111,49.85
132.413,49.1
135.676,53.16
132.228,48.18
135.304,52.97
134.649,51.27
135.271,55.45
132.882,47.86
130.39,41.72
129.531,44.62
135.928,53.16
135.181,50.73
133.636,49.68
134.767,53.33
133.283,51.04
133.781,51.11
135.628,55.3
133.161,47.3
133.739,48.46
133.335,52.97
136.313,55.5
131.536,49.25
136.699,54.58
136.577,56.34
137.118,55.54
136.243,54.15
132.211,50.23
135.555,52.76
134.09,51.36
133.972,49.61
136.024,52.8
136.376,54.22
135.457,53.55
135.27,52.9
131.67,51.19
134.487,51.13
135.392,51.86
136.756,54.44
135.581,55.96
136.37,54.89
136.708,54.88
127.765,41.67
136.718,54.93
136.364,54.45
136.415,54.95
134.838,51.37
135.609,52.64
135.472,52.83
134.749,51.33
134.026,49.1
136.348,54.08
136.256,54.09
133.176,47.49
136.49,54.51
134.394,52.1
134.924,53.06
135.848,54.63
137.368,57.36
137.256,55.66
134.326,50.8
136.176,53.15
134.835,51.57
134.847,53.23
135.668,53.01
134.749,49.86
136.136,53.3
137.534,56.91
136.256,54.86
133.656,49.69
137.734,56.89
131.7,48.68
136.869,54.78
134.341,54.85
133.523,47.78
136.85,56.16
136.551,55.7
135.025,52.43
136.104,53.45
136.912,54.96
135.774,52.09
136.648,54.14
132.266,48.75
132.377,46.5
138.349,59.28
135.001,50.86
136.765,54.85
136.282,54.81
136.139,54.27
134.452,53.21
136.685,54.71
132.347,45.77
133.302,47.03
133.707,47.45
135.293,50.9
136.759,54.95
135.66,52.39
136.665,54.41
136.194,53.18
136.334,54.26
134.202,50.34
134.806,50.31
137.005,55.63
133.844,49.81
136.251,54.22
135.291,52.59
134.866,50.77
134.7,52.15
127.357,32.68
136.692,54.58
133.995,50.79
136.773,56.05
137.996,58.36
135.953,53.78
136.841,55.86
136.073,53.38
134.434,50.33
136.954,56.58
136.243,54.69
137.399,56.65
136.838,55.77
136.143,53.78
136.005,56.25
131.98,45.27
132.442,49.44
136.371,54.35
136.065,54.04
135.976,53.45
136.612,55.9
136.187,53.51
135.615,53.77
130.574,44.81
133.553,50.56
136.706,56.3
138.296,58.3
133.289,52.03
134.617,51.05
134.725,51.79
137.102,55.96
135.143,51.43
131.787,46.03
132.878,45.89
135.883,53.94
134.728,50.85
133.537,52.33
132.196,49.21
136.295,55.5
136.992,55.58
135.262,54.8
137.89,57.54
135.3,54.14
136.048,54.79
138.259,58.17
137.095,57.44
138.863,60.34
137.496,59.14
136.966,56.56
136.718,55.04
136.771,56.63
136.242,53.59
137.935,58.41
138.717,60.55
138.418,60.0
136.98,56.38
135.867,55.72
130.921,41.77
133.603,49.58
130.189,43.62
134.779,50.18
136.532,54.34
132.093,48.52
134.202,49.48
130.819,43.89
129.783,42.75
136.149,53.78
137.606,56.47
138.369,59.27
129.517,37.15
128.355,34.33
133.488,47.39
136.803,55.28
136.253,53.67
132.215,47.62
133.036,48.51
135.299,51.36
137.979,58.96
136.766,54.63
136.32,54.69
136.262,53.81
133.293,50.0
136.329,54.03
134.385,51.88
128.717,35.66
132.166,45.5
129.566,39.36
134.285,49.37
135.159,50.73
135.56,52.68
135.247,51.35
134.209,50.91
137.206,57.53
135.459,52.35
133.66,48.38
132.035,45.14
128.915,39.53
130.28,42.94
132.484,46.25
126.933,32.95
132.119,48.39
136.281,54.06
136.181,52.92
131.153,42.39
130.58,40.73
136.489,54.32
134.189,48.71
136.456,54.06
133.163,47.76
135.307,51.95
135.788,53.06
136.999,55.63
136.215,53.28
135.389,52.6
137.163,56.56
136.488,54.24
135.392,51.75
135.695,52.05
136.461,54.56
137.134,55.43
137.173,55.44
130.002,46.03
134.426,49.17
130.83,47.92
135.848,52.56
130.469,53.7
132.768,45.36
137.16,56.42
136.972,56.0
138.108,58.91
136.95,55.88
135.392,51.49
134.995,50.47
134.431,51.22
133.59,47.63
131.204,42.65
132.626,46.86
135.133,51.21
134.205,49.93
134.367,50.89
134.274,51.47
136.685,54.33
137.345,57.73
135.37,52.1
134.337,50.21
130.415,43.99
131.742,49.3
127.508,38.97
137.092,55.41
136.753,55.59
131.857,47.33
133.246,46.89
130.008,41.1
129.51,40.94
136.582,54.5
134.736,50.11
131.857,43.5
133.592,47.15
136.294,54.06
134.123,48.77
133.214,47.15
136.008,52.78
135.708,52.55
135.333,53.8
135.428,52.57
136.547,54.46
136.74,54.59
133.819,48.85
133.393,47.28
134.877,50.66
131.472,45.99
136.666,54.65
134.964,50.69
134.899,50.69
137.379,56.21
137.278,56.25
135.135,52.55
138.743,59.03
126.284,31.82
135.706,52.68
133.849,51.24
136.283,53.5
135.665,52.57
134.61,51.36
131.595,49.05
133.51,50.41
128.686,36.94
135.209,50.37
136.872,55.07
135.993,54.05
136.888,55.5
135.679,54.64
135.676,53.16
137.312,56.76
134.283,51.28
133.01,51.19
133.543,49.77
136.103,53.27
137.528,56.98
135.565,52.6
132.904,46.02
135.421,52.14
136.4,54.3
129.049,36.88
135.026,51.34
136.141,53.87
134.541,50.05
128.588,35.24
129.283,37.01
126.609,30.67
126.371,30.79
126.843,31.25
133.172,47.12
133.816,48.09
133.227,46.74
136.276,53.91
134.99,52.92
135.986,53.95
127.277,40.48
133.649,53.16
133.241,47.68
136.108,53.56
135.65,54.68
135.134,52.6
135.426,53.12
137.146,57.04
135.985,53.82
133.264,47.27
135.435,53.24
135.956,52.82
133.658,48.88
134.091,53.26
136.503,53.96
136.513,55.71
137.672,56.82
134.54,50.29
136.374,54.23
136.777,55.03
136.484,54.09
135.643,51.79
134.549,49.6
133.658,47.63
133.513,51.11
135.531,53.01
135.204,54.4
134.411,51.42
131.998,50.51
135.504,55.56
134.235,51.97
136.677,58.33
138.238,58.48
136.08,54.35
127.858,37.99
126.434,36.04
129.124,39.22
133.455,47.5
133.416,47.11
129.892,39.9
128.504,35.23
130.232,39.23
131.926,42.6
127.543,34.82
134.394,49.02
131.417,43.46
126.609,33.33
130.027,40.63
129.329,37.47
127.03,35.2
132.388,44.37
130.986,40.53
125.186,30.23
132.267,48.33
130.16,42.06
128.62,36.82
128.055,36.18
129.58,37.36
127.875,35.75
128.024,36.47
126.442,33.06
124.931,28.54
127.993,34.01
127.551,33.46
127.993,38.52
127.209,33.03
125.454,28.75
126.558,31.67
125.573,31.75
124.723,31.96
129.859,41.4
130.962,41.1
128.844,36.51
130.089,52.78
130.256,45.89
134.115,49.13
133.049,46.76
130.254,43.54
135.764,52.7
129.934,41.81
131.092,45.06
134.66,52.32
136.709,54.61
136.041,53.23
136.863,55.3
137.738,57.29
137.353,58.04
128.461,35.05
126.094,33.02
127.648,34.99
128.212,35.47
131.965,47.77
137.361,56.25
132.316,59.6
124.967,43.33
137.243,56.37
134.997,52.81
133.51,50.41
133.967,51.72
133.153,48.67
135.654,52.21
136.121,53.21
131.647,43.18
135.79,52.68
135.632,52.07
135.088,52.02
135.953,52.83
133.101,48.72
132.282,46.86
134.734,55.17
136.45,54.4
134.97,50.99
131.208,42.77
134.546,50.43
133.868,50.88
136.966,54.99
136.518,54.75
136.467,54.59
136.209,53.63
131.14,51.77
135.455,55.66
136.296,53.67
137.364,56.48
120.46,36.0
135.042,50.78
133.312,46.71
135.602,52.38
135.351,52.08
135.175,52.13
135.203,52.91
136.289,53.89
134.617,51.05
127.218,31.22
121.241,28.15
135.117,52.07
135.493,52.84
137.088,56.45
136.547,55.0
135.005,51.1
132.021,43.77
133.517,47.43
134.327,48.52
132.007,44.94
136.31,53.61
135.979,53.1
135.643,55.0
136.743,54.95
135.842,53.47
136.118,53.31
134.397,51.12
134.942,52.87
134.096,54.17
134.473,50.25
134.235,51.97
133.658,48.88
136.665,54.44
133.587,49.77
134.042,50.76
136.977,55.99
135.978,53.03
134.653,49.77
135.354,51.26
132.519,47.38
135.324,51.39
135.859,53.31
135.616,52.86
135.488,52.47
134.706,50.45
134.325,49.02
133.901,49.21
133.762,48.45
132.665,48.67
135.039,50.69
129.831,53.54
136.52,54.22
132.488,49.62
136.458,54.84
137.394,56.24
138.518,59.16
137.655,57.83
136.326,53.86
133.243,51.06
130.511,42.22
136.286,53.46
136.25,53.67
135.703,52.53
133.652,51.21
128.18,49.02
134.86,50.48
128.28,40.64
134.329,49.37
135.789,53.01
135.491,52.17
136.305,54.0
135.988,53.46
136.387,54.76
136.356,55.26
136.543,54.73
136.021,53.32
135.79,52.96
135.686,52.4
135.7,53.44
136.192,53.61
135.284,51.54
135.931,52.78
136.64,54.89
136.141,53.67
135.534,53.04
136.947,55.97
135.764,52.02
134.694,53.89
132.695,51.96
136.295,54.67
136.621,55.79
136.116,54.07
136.689,55.93
138.12,57.88
133.613,47.95
133.326,47.58
135.46,52.37
126.828,32.93
126.799,31.45
126.253,33.67
134.717,50.68
135.072,53.21
134.99,51.38
136.887,55.01
135.004,52.17
134.74,51.53
136.003,53.57
134.946,51.44
136.363,54.67
137.286,56.81
137.258,55.75
136.182,54.41
135.928,53.94
135.991,53.08
135.175,52.12
136.725,56.44
134.751,49.91
130.878,45.56
136.037,55.23
135.044,51.74
136.092,54.28
133.862,50.1
135.434,51.67
135.407,52.85
137.79,57.73
137.007,55.16
135.986,53.15
136.469,55.77
135.949,52.96
134.865,52.2
133.378,48.67
134.432,50.94
131.03,45.93
133.789,48.23
133.241,47.85
131.304,41.65
132.653,45.55
135.789,52.03
134.879,51.82
134.96,52.66
136.022,53.2
137.484,56.74
136.431,54.57
136.117,53.4
136.246,53.45
133.818,48.95
131.858,43.53
132.821,45.5
131.043,42.03
132.558,44.73
135.808,52.67
136.308,53.51
133.821,48.52
133.703,48.17
135.977,53.22
135.855,53.47
136.756,55.63
136.939,56.08
135.489,52.8
134.075,50.0
134.685,50.63
135.625,54.79
136.66,55.31
128.804,36.24
130.766,40.98
130.901,47.03
130.144,44.44
136.634,55.27
135.106,52.36
136.745,55.59
137.015,54.97
135.62,53.0
132.658,45.36
134.591,49.46
135.431,52.1
136.952,55.42
133.919,50.56
132.762,45.23
133.383,50.79
136.643,55.52
137.105,55.95
136.721,54.83
134.908,51.25
134.328,49.63
135.731,53.95
135.514,52.44
135.141,52.3
136.589,54.59
134.909,51.65
133.812,49.9
135.247,51.94
136.138,54.0
134.767,50.61
133.819,48.81
135.442,52.73
133.87,49.5
133.158,48.75
131.857,47.33
130.807,43.12
135.422,52.74
137.067,56.18
136.505,54.27
134.79,50.95
131.363,47.5
131.606,43.86
130.1,40.0
134.57,51.85
136.086,53.94
135.709,52.48
134.585,51.6
137.599,57.78
135.341,51.95
137.755,56.98
131.742,49.3
138.541,58.54
123.443,28.27
128.739,40.14
134.933,52.05
133.851,51.89
136.614,54.87
138.436,58.57
135.432,52.41
137.306,55.89
136.22,54.3
135.302,52.91
136.334,54.26
135.697,53.7
137.011,55.08
133.161,50.16
136.119,52.96
136.554,55.18
135.624,55.85
135.707,53.17
134.882,50.17
137.234,55.58
135.255,51.56
135.936,53.43
136.341,54.91
137.364,56.48
136.921,55.99
135.582,52.11
136.044,53.47
135.295,51.48
135.202,52.34
133.211,49.72
135.052,51.14
134.779,49.86
135.034,51.52
133.13,46.55
134.247,49.38
132.238,44.55
135.997,53.33
135.364,54.69
134.64,51.65
134.439,51.98
134.97,51.77
134.833,52.41
131.787,46.17
136.076,52.54
136.622,53.86
130.725,42.79
136.774,55.29
137.861,58.63
133.576,54.23
137.127,56.88
137.362,57.86
137.115,55.54
133.484,49.27
135.652,53.23
137.088,56.15
137.673,58.48
133.26,48.05
132.052,48.35
135.621,53.62
135.059,53.52
136.601,54.61
137.257,56.26
138.014,58.14
137.225,55.97
135.065,53.38
134.518,50.11
135.342,51.37
137.023,55.71
135.956,52.79
129.876,37.77
136.196,54.42
137.487,56.03
137.022,55.45
136.064,54.49
135.951,53.17
131.265,43.5
131.09,46.59
136.573,54.14
136.828,55.73
129.02,42.34
135.045,56.08
134.26,53.55
131.0,45.79
130.394,43.88
134.662,51.79
132.938,47.51
135.011,52.62
133.733,49.61
132.269,45.83
126.06,36.56
129.295,40.54
129.927,45.45
130.511,44.11
136.931,57.45
135.733,55.16
136.349,56.09
137.688,59.91
136.196,59.65
135.072,55.02
135.91,57.39
137.633,58.76
137.343,56.22
138.231,58.43
137.041,55.73
136.544,56.75
137.752,57.69
136.953,56.01
137.005,58.66
136.912,58.1
137.03,57.4
135.289,56.91
137.22,56.02
135.82,56.01
137.18,58.28
138.588,59.06
137.403,56.59
138.445,59.38
136.536,55.93
136.561,57.08
137.435,56.97
134.18,50.45
134.73,50.66
131.708,44.64
129.479,44.12
133.96,49.91
135.331,51.13
130.055,46.45
132.623,50.41
129.737,40.22
131.74,49.75
133.008,46.88
135.69,53.26
132.138,45.86
133.847,50.74
134.999,51.55
134.099,49.05
135.296,52.12
132.953,50.55
136.37,54.07
135.387,51.45
136.893,60.91
136.165,54.93
137.563,57.99
136.628,54.27
133.308,49.39
134.465,49.32
135.029,50.97
136.653,55.02
135.507,51.98
136.003,53.75
127.395,32.01
134.833,52.41
135.108,51.66
137.019,55.12
134.315,52.3
135.0,52.22
136.886,55.35
128.862,42.38
135.243,53.29
128.117,34.56
135.932,53.37
132.338,49.79
135.514,52.44
136.113,53.39
136.853,55.56
135.802,52.85
124.556,28.61
134.025,49.44
134.319,51.8
133.711,50.98
137.379,55.9
137.264,58.1
134.406,53.9
132.592,44.68
133.623,51.23
134.674,52.26
137.251,56.22
137.251,56.0
127.686,32.95
136.853,55.03
132.862,49.52
137.545,56.56
135.857,52.75
135.853,54.5
137.307,57.59
137.472,57.26
137.449,56.5
134.403,52.34
134.928,52.09
136.028,53.27
134.043,49.57
136.585,54.14
137.129,55.83
136.709,54.48
136.691,55.23
131.863,47.83
135.913,52.57
136.389,55.23
137.718,57.78
136.392,54.82
135.172,52.34
137.008,56.16
137.178,56.51
137.654,57.07
137.981,57.51
135.267,55.15
138.551,60.34
137.08,58.45
138.105,60.04
139.348,61.57
138.754,61.09
138.875,61.13
137.988,58.75
139.398,61.78
139.478,63.25
138.914,62.69
139.296,62.26
139.381,62.31
136.411,54.57
138.112,59.19
133.957,50.68
131.605,46.13
135.44,51.32
137.301,57.0
134.792,50.1
136.393,54.41
135.509,53.21
134.74,49.88
136.503,54.41
130.655,41.08
136.049,52.8
134.435,49.94
135.912,52.95
133.151,46.17
136.211,55.08
136.545,54.28
135.599,52.2
134.035,49.44
134.887,50.25
131.302,47.62
129.198,41.39
126.646,34.68
125.194,35.06
133.891,47.89
135.412,51.65
133.95,47.72
134.525,49.59
131.498,42.04
135.594,53.82
136.541,54.24
133.39,50.44
135.689,52.46
134.374,49.13
132.796,47.59
135.364,51.71
132.486,48.98
136.197,53.43
135.725,55.93
132.398,45.06
135.799,53.06
134.046,50.09
131.795,54.76
129.632,47.62
134.496,53.46
135.472,53.75
134.786,50.44
135.033,54.17
133.081,48.99
135.76,53.61
137.331,56.11
135.39,52.15
133.725,47.53
137.353,55.75
136.132,53.97
136.175,53.94
135.466,53.66
136.046,53.51
137.795,57.4
134.449,51.73
136.749,55.01
137.475,56.44
135.891,53.42
132.551,48.87
136.193,53.71
137.072,55.87
135.895,53.33
131.377,48.99
136.274,53.89
133.134,48.83
136.955,54.95
136.798,56.15
128.727,38.31
134.557,50.79
132.935,46.97
130.785,43.36
133.855,49.3
135.853,53.01
136.752,54.8
133.2,51.09
132.533,48.48
135.503,52.93
134.524,50.53
135.548,52.39
135.949,53.0
133.396,50.98
135.203,53.55
137.029,56.99
137.504,57.54
136.634,55.9
131.12,46.01
134.634,52.78
133.773,51.75
133.318,52.63
133.518,49.56
131.492,43.91
131.929,45.83
135.308,51.7
136.293,55.24
136.391,55.56
135.578,52.09
135.45,53.09
136.793,55.59
135.964,53.77
136.172,56.69
134.747,49.74
136.641,55.74
128.914,36.42
135.055,52.61
129.067,43.0
134.85,50.37
135.716,53.83
136.206,53.4
137.006,54.84
133.826,51.46
132.684,50.4
135.335,55.56
134.431,51.22
134.687,50.47
137.056,55.62
137.726,57.77
135.263,51.81
134.791,50.65
136.887,55.31
135.166,52.9
136.534,54.47
133.085,49.1
134.057,50.75
136.332,53.53
136.105,53.2
136.744,54.92
136.002,53.69
136.037,52.65
134.462,52.45
133.384,49.13
135.924,53.53
130.352,50.37
132.357,47.22
135.92,54.06
133.995,49.83
133.484,49.45
127.269,31.58
135.283,51.84
133.532,49.88
133.861,50.0
129.481,37.43
137.074,55.15
135.434,54.28
136.869,55.16
136.579,54.86
136.261,54.11
136.21,53.56
136.588,55.0
133.382,46.41
134.828,54.13
136.102,54.05
129.076,39.42
133.235,50.15
133.32,48.93
134.951,52.28
130.407,39.56
132.05,44.44
134.131,50.98
134.038,49.15
134.36,49.88
129.101,40.45
129.872,38.5
129.266,37.85
129.918,38.11
130.704,39.52
134.629,48.87
135.057,50.23
135.865,51.96
136.296,52.93
134.891,50.02
135.456,57.32
133.697,48.01
132.275,44.35
131.371,42.96
131.259,43.12
132.73,46.73
134.68,51.73
134.092,50.6
132.011,44.49
134.268,48.35
133.659,49.34
134.918,52.58
134.43,49.94
136.04,53.27
136.412,54.35
137.895,57.7
135.739,53.58
130.169,39.71
132.804,48.35
137.124,56.1
135.159,53.46
135.292,52.63
132.967,47.94
134.758,49.25
136.349,54.2
132.138,44.48
128.915,35.42
134.438,54.31
136.777,55.99
136.002,53.39
135.572,52.2
136.498,54.5
133.736,48.53
136.884,55.27
132.227,52.73
131.832,43.65
132.084,43.81
135.384,55.26
131.416,41.71
134.936,50.48
134.695,49.45
126.861,35.44
127.749,33.04
136.23,54.23
132.092,50.49
137.45,56.25
129.238,38.49
136.457,54.05
135.487,51.91
133.275,47.1
135.282,51.81
135.585,51.66
133.961,50.3
134.674,50.95
136.607,56.48
134.468,51.69
135.042,51.75
132.124,44.77
132.33,45.43
135.462,52.72
132.092,49.37
136.85,55.62
136.739,57.73
134.561,52.13
135.656,53.54
136.4,53.96
134.357,50.66
131.793,51.85
136.251,54.1
136.563,55.43
136.886,56.02
136.279,54.74
136.937,55.48
136.457,54.41
135.344,52.64
129.227,41.67
137.628,56.9
137.233,56.66
137.84,57.63
135.068,51.01
130.694,48.81
136.885,55.1
136.798,54.75
134.653,54.21
136.162,55.56
136.689,56.17
135.697,53.1
133.257,48.73
136.361,55.22
136.525,54.39
134.534,49.59
134.63,50.91
134.128,49.78
133.749,51.54
124.873,29.13
128.348,34.87
132.799,44.75
131.294,42.35
135.306,51.19
136.249,53.65
137.328,56.54
134.167,51.26
135.35,53.33
136.559,58.05
136.057,54.83
136.019,53.68
137.278,57.01
135.123,53.02
135.374,52.72
131.379,44.78
131.188,45.03
135.576,52.92
127.661,34.96
130.59,39.31
129.711,37.39
129.236,36.6
122.382,27.18
125.998,33.33
129.704,43.72
137.471,57.76
136.558,58.49
135.6,52.66
133.03,49.7
130.924,47.76
135.004,52.17
142.065,69.15
132.399,50.68
133.128,50.33
137.183,56.88
136.076,53.98
134.828,54.13
133.445,47.13
132.86,45.99
133.608,47.07
136.382,54.71
139.024,64.71
137.09,57.02
133.822,54.05
136.68,56.58
138.896,61.13
139.066,62.3
135.611,56.44
135.882,55.56
137.885,60.77
135.384,57.58
137.624,57.12
137.565,58.69
137.856,60.09
137.194,58.5
132.315,50.0
138.382,58.6
136.523,57.01
137.973,58.92
129.794,47.17
135.668,51.98
131.36,44.44
133.781,51.11
133.707,50.36
127.502,31.4
134.154,53.48
134.593,51.79
137.617,58.1
132.154,44.48
136.737,56.68
136.362,60.56
133.384,49.13
126.129,35.71
132.665,48.67
130.061,43.92
137.519,57.58
134.774,54.74
132.16,48.55
126.69,37.2
135.644,54.62
135.917,53.6
132.69,44.3
132.502,49.45
131.412,44.52
134.905,50.77
133.951,47.91
133.314,47.05
